t(min)   Tvap(°C)   TckIn(°C)   TckSld(°C)   TckOut(°C)   Mvap(t/h)   Nivel(m)   TspIn(°C)   TspSld(°C)
0   333.198   370.1   370.1   370.1   3   0   370.1   370.1   
5   331.322   368.92   369.823   370.07   3   0   357.998   365.984   
10   331.241   367.619   369.509   370.038   3   0   356.788   365.715   
15   331.165   366.401   369.246   370.005   3   0   355.658   365.42   
20   331.093   365.192   368.968   369.972   3   0   354.535   365.18   
25   331.023   363.991   368.741   369.939   3   0   353.419   364.927   
30   330.954   362.799   368.508   369.906   3   0   352.312   364.725   
35   330.886   361.614   368.328   369.873   3   0   351.211   364.524   
40   330.819   360.437   368.166   369.84   3   0   350.118   364.377   
45   330.752   359.268   368.031   369.806   3   0   349.032   364.233   
50   330.686   358.107   367.892   369.773   3   0   347.953   364.103   
55   330.62   356.954   367.763   369.74   3   0   346.881   363.97   
60   330.554   355.809   367.631   369.707   3   0   345.817   363.845   
65   330.488   354.671   367.505   369.673   3   0   344.759   363.716   
70   330.422   353.541   367.376   369.64   3   0   343.709   363.592   
75   279.623   352.643   367.257   369.609   8   0   335.768   362.269   
80   279.501   350.992   366.912   369.466   8   0   334.376   361.972   
85   279.39   349.272   366.628   369.347   8   0   332.86   361.66   
90   279.282   347.569   366.317   369.248   8   0   331.359   361.392   
95   279.177   345.883   366.054   369.148   8   0   329.872   361.103   
100   279.073   344.215   365.774   369.053   8   0   328.4   360.86   
105   278.971   342.541   365.543   368.957   8   0   326.922   360.608   
110   278.87   340.905   365.306   368.862   8   0   325.479   360.4   
115   278.771   339.287   365.109   368.766   8   0   324.051   360.187   
120   278.673   337.685   364.907   368.671   8   0   322.636   360.006   
125   278.574   336.098   364.731   368.575   8   0   321.236   359.821   
130   278.475   334.528   364.551   368.48   8   0   319.849   359.655   
135   212.74   332.974   364.392   368.391   12.5259   0.123377   149.479   358.558   
140   249.573   325.942   351.481   368.391   5.83168   1.26649   106.147   280.911   
145   180.318   312.769   350.978   368.391   21.8269   1.90215   104.118   283.857   
150   179.515   300.531   339.738   368.391   21.0334   2.34547   102.44   277.961   
155   250.938   290.14   337.368   368.356   4.74985   2.84656   100.559   145.22   
160   201.692   280.833   327.767   368.353   9.95801   3.25114   99.0822   143.872   
165   212.827   271.786   316.489   368.319   7.76577   3.5934   97.6073   142.721   
170   194.556   263.209   310.274   368.31   10.5409   3.90613   96.239   142.821   
175   185.181   254.788   303.371   368.307   12.9193   4.18614   94.8576   142.137   
180   168.689   245.599   297.811   368.307   19.989   4.45359   93.3106   141.817   
185   165.914   236.6   291.024   368.26   23.0853   4.6903   91.6058   141.14   
190   165.588   228.198   284.346   368.254   24.744   4.89364   90.366   140.56   
195   178.47   220.885   278.033   368.123   14.0904   5.11256   88.8991   140.192   
200   205.391   213.726   271.623   367.942   7.20803   5.35695   87.6966   139.644   
205   221.7   206.68   266.706   367.575   5.38049   5.61977   86.3925   141.637   
210   284.877   200.26   260.597   367.423   2.20285   5.93038   85.2719   138.353   
215   367.114   194.535   253.88   367.338   0.0709132   6.2387   83.9427   139.552   
220   367.148   188.936   249.372   367.338   0.0674613   6.53466   82.901   112.483   
225   367.169   183.61   243.198   367.338   0.0606272   6.81055   81.9102   110.769   
230   367.18   178.395   237.217   367.338   0.0570562   7.06485   80.9119   109.109   
235   367.191   173.48   231.429   367.338   0.0535559   7.30133   79.9863   107.499   
240   367.202   168.323   225.836   367.338   0.0500448   7.52095   78.951   105.934   
245   367.213   163.933   220.417   367.338   0.0465244   7.72464   78.1381   104.418   
250   367.225   159.56   215.172   367.338   0.0429955   7.91336   77.2729   102.949   
255   367.236   155.363   210.095   367.338   0.0394474   8.08901   76.4329   101.523   
260   367.249   151.331   205.184   367.338   0.0358943   8.25158   75.6177   100.14   
265   367.261   147.454   200.433   367.338   0.0323719   8.40404   74.8262   98.7965   
270   367.262   143.732   195.836   367.338   0.0323138   8.5414   74.0579   97.4932   
275   367.275   140.147   191.39   367.338   0.0287536   8.67064   73.3111   96.2274   
280   367.275   136.709   187.09   367.338   0.0287342   8.79277   72.587   94.9979   
285   367.289   133.39   182.926   367.338   0.0251709   8.90077   71.8816   93.8056   
290   367.059   130.216   178.898   367.338   0.0215989   9.00668   71.1997   92.6477   
295   -96.3975   127.143   175.003   367.136   0.0215878   9.09844   70.5339   91.5226   
300   -100.057   124.209   171.232   366.277   0.0215748   9.19013   69.8911   90.4304   
305   131.535   121.364   167.583   366.156   0.0260126   9.26867   69.2629   89.37   
310   358.535   119.01   163.691   365.913   0.0259567   9.379   67.9623   85.3939   
315   360.428   116.443   159.67   365.722   0.0207977   9.47177   67.3875   84.4033   
320   360.372   113.978   156.142   365.32   0.0207893   9.56012   66.8337   83.4586   
325   364.411   111.614   152.723   365.131   0.015621   9.63674   66.298   82.5522   
330   364.311   109.348   149.429   365.131   0.0156151   9.7031   65.7801   81.6718   
335   364.289   107.173   146.251   365.131   0.0156095   9.76943   65.2793   80.8178   
340   366.349   105.087   143.186   365.131   0.0104307   9.82402   64.7949   79.9892   
345   366.338   103.084   140.229   364.908   0.0104272   9.86834   64.3266   79.1849   
350   366.33   101.162   137.376   364.65   0.0104238   9.91263   63.8736   78.4045   
355   366.323   99.3166   134.622   364.391   0.0104206   9.95692   63.4353   77.6471   
360   -17610.9   97.5441   131.965   364.13   0.142972   10.0012   63.0115   76.912   
365   -7189.67   95.8419   129.399   310.52   0.143265   10.6086   62.6014   76.1986   
370   -7565.09   94.2063   126.923   274.516   0.137114   11.2182   62.2047   75.5058   
375   -6739.14   92.6348   124.533   258.442   0.13641   11.8305   61.821   74.8333   
380   -4307.14   91.1246   122.225   214.423   0.145148   12.4454   61.4496   74.1805   
385   -6217.78   89.6727   119.996   214.237   0.348836   13.0631   61.0903   73.5465   
390   -23793.2   88.1504   117.808   214.237   0.365138   14.623   57.4942   70.6325   
395   143.179   86.5781   115.493   211.534   0.395112   15.5592   57.1943   70.0544   
400   143.179   85.0719   113.23   210.264   0.395112   15.9568   56.9064   69.4997   
405   143.179   83.6291   111.098   210.264   0.395112   16.3544   56.6299   68.949   
410   143.179   82.2472   109.028   210.264   0.395112   16.752   56.3645   68.4286   
415   143.179   80.923   107.059   210.264   0.395112   17.1496   56.1097   67.9195   
420   143.179   79.6544   105.16   210.264   0.395112   17.5472   55.865   67.4291   
425   143.179   78.4388   103.334   210.264   0.395112   17.9448   55.6302   66.9532   
430   143.179   77.2739   101.576   210.264   0.395112   18.3424   55.4047   66.4916   
435   143.179   76.1576   99.8836   210.264   0.395112   18.74   55.1882   66.0443   
440   143.179   75.0878   98.2542   210.264   0.395112   19.1376   54.9803   65.6103   
445   143.179   74.0625   96.6845   210.264   0.395112   19.5352   54.7808   65.1896   
450   143.179   73.0798   95.1729   210.264   0.395112   19.9328   54.5893   64.7814   
455   143.179   72.1378   93.7162   210.264   0.395112   20.3304   54.4054   64.3856   
460   143.179   71.5984   92.9091   210.264   0.000174058   20.4099   59.2168   -16278.6   
465   143.179   71.088   92.9091   210.264   0.000174058   20.4101   59.0254   -35970.1   
470   143.179   70.5907   92.9091   210.264   0.000174058   20.4103   58.8383   80.1081   
475   143.179   70.1064   92.9091   210.264   0.000174058   20.4105   58.6554   81.1661   
480   143.179   69.6346   92.9091   210.264   0.000174058   20.4106   58.4767   82.3351   
485   143.179   69.175   92.9091   210.264   0.000174058   20.4108   58.3019   83.5999   
490   143.179   68.7271   92.9012   210.264   0.000174058   20.411   58.1311   83.7582   
495   143.179   68.2908   92.9012   210.264   0.000174058   20.4112   57.9641   84.2494   
500   143.179   67.8656   92.9012   210.264   0.000174058   20.4113   57.8009   85.5113   

Função objetivo mínima: 50.1878
Parâmetros otimizados:
Dp = 4.07979
Le = 5.57584
zd = 0.01
eps = 0.236836
Numero de iterações = 20
Numero de particulas = 100

Pico de vazao de vapor [t/h] = 26.3146
Agua total adicionada [kg] = 538934
Vapor total gerado [kg] = 16197.7
Agua acumulada no leito [kg] = 394223
balanco [kg] = 128514
errobalanco [%] = 23.8459

Tempo: 91193 s
